Data from c2t_JH05_50uM_Absorbance_11-14-37-019.txt Node
Date: Thu Dec 21 11:14:37 GMT 2017
User: egn-admin
Spectrometer: OFX00224
Trigger mode: 0
Integration Time (sec): 5.000000E-2
Scans to average: 1
Nonlinearity correction enabled: false
Boxcar width: 0
Storing dark spectrum: false
XAxis mode: Wavelengths
Number of Pixels in Spectrum: 2136
>>>>>Begin Spectral Data<<<<<
154.91	-0
155.289	-0.15
155.669	0.45
156.048	0.36
156.428	-0
156.807	-0.02
157.186	-0
157.566	0.78
157.945	-0
158.325	-1.06
158.704	-0
159.083	-0
159.462	0.33
159.842	-0
160.221	-0.18
160.6	-0.1
160.979	-0
161.359	-0.57
161.738	-0.19
162.117	-0
162.496	-0
162.875	-0.8
163.254	-0.05
163.633	0.67
164.012	-0.3
164.391	-1.18
164.77	-0.34
165.149	0.6
165.528	-0.06
165.907	-0
166.286	-0.27
166.665	1.58
167.044	0.72
167.423	-0
167.802	-0
168.181	-0
168.559	-0
168.938	0.07
169.317	0.14
169.696	-0.02
170.074	0.42
170.453	-0.3
170.832	0.15
171.21	0.24
171.589	0.42
171.968	-0
172.346	0.13
172.725	-0.36
173.103	-0.19
173.482	-0.02
173.861	-0
174.239	-0.15
174.617	-0.3
174.996	-0
175.374	-0
175.753	-0.7
176.131	0.15
176.51	0.04
176.888	-0.29
177.266	-0.16
177.645	-0
178.023	-0.16
178.401	-0
178.779	-0.23
179.158	0.22
179.536	0.1
179.914	-0.43
180.292	-0
180.67	0.56
181.048	0.6
181.427	0.6
181.805	-0
182.183	0.3
182.561	-0
182.939	-0.06
183.317	0.37
183.695	-0.52
184.073	-0
184.451	-0
184.829	0.52
185.206	-0
185.584	-0.55
185.962	-0.82
186.34	0.4
186.718	-0.23
187.096	0.81
187.473	0.28
187.851	-0.43
188.229	-0.11
188.607	-0.07
188.984	0.09
189.362	0.49
189.74	0.05
190.117	-0
190.495	-0.03
190.872	0.48
191.25	1.22
191.627	0.26
192.005	0.01
192.382	-0
192.76	-0.1
193.137	0.1
193.515	0.02
193.892	1.07
194.269	-0.17
194.647	0.38
195.024	0.08
195.401	-0.12
195.779	0.15
196.156	0.32
196.533	-0.1
196.91	-0.3
197.288	-0
197.665	-1.59
198.042	0.39
198.419	0.07
198.796	0.21
199.173	-0.31
199.55	-0.6
199.927	-0.4
200.304	-0.33
200.681	-0.27
201.058	0.41
201.435	-0
201.812	0.01
202.189	0.19
202.566	0.52
202.943	0.17
203.32	0.01
203.697	-0.06
204.073	-0.15
204.45	0.08
204.827	0.11
205.204	-0
205.58	-0.2
205.957	-0.09
206.334	-0.02
206.71	-0
207.087	-0.01
207.464	-0.06
207.84	0.52
208.217	0.01
208.593	-0.03
208.97	-0.12
209.346	0.13
209.723	-0.03
210.099	0.58
210.476	0.37
210.852	0.2
211.228	0.27
211.605	-0.07
211.981	0.04
212.357	0.09
212.733	0.2
213.11	0.03
213.486	0.11
213.862	0.19
214.238	0.35
214.614	-0.2
214.991	-0
215.367	-0.14
215.743	-0.59
216.119	-0.16
216.495	-0.06
216.871	-0.25
217.247	0.03
217.623	0.15
217.999	-0.29
218.375	0.04
218.751	0.15
219.127	0.19
219.502	0.02
219.878	-0.04
220.254	-0.18
220.63	-0.03
221.006	0.25
221.381	0.21
221.757	0.33
222.133	0.04
222.508	0.23
222.884	0.14
223.26	-0.21
223.635	0.06
224.011	-0.23
224.386	0.32
224.762	0.01
225.137	0.2
225.513	0.07
225.888	-0.28
226.264	0.28
226.639	-0.09
227.014	0.07
227.39	0.61
227.765	0.09
228.14	0.12
228.516	0.17
228.891	0.09
229.266	0.02
229.641	-0
230.017	0.19
230.392	-0.06
230.767	-0.09
231.142	-0.22
231.517	0.16
231.892	0.31
232.267	0.25
232.642	0.21
233.017	-0.02
233.392	0.48
233.767	0.57
234.142	-0.03
234.517	0.18
234.892	0.34
235.267	0.34
235.641	-0.22
236.016	0.29
236.391	-0.13
236.766	-0.18
237.14	0.24
237.515	0.1
237.89	0.32
238.264	0.63
238.639	0.16
239.014	0.01
239.388	0.12
239.763	0.2
240.137	0.34
240.512	-0
240.886	0.48
241.261	-0.12
241.635	0.04
242.009	-0.01
242.384	-0.1
242.758	0.26
243.132	0.04
243.507	0.24
243.881	0.13
244.255	0.08
244.629	-0.01
245.004	0.15
245.378	0.16
245.752	0.5
246.126	0.06
246.5	0.19
246.874	0.09
247.248	0.27
247.622	0.69
247.996	0.07
248.37	0.22
248.744	0.46
249.118	0.13
249.492	-0
249.866	0.12
250.24	0.14
250.613	0.1
250.987	0.07
251.361	-0.01
251.735	0.12
252.108	0.27
252.482	0.14
252.856	0.19
253.229	0.12
253.603	0.1
253.977	0.09
254.35	0
254.724	0.15
255.097	0.59
255.471	0.19
255.844	0.39
256.218	0.22
256.591	0.4
256.964	0.18
257.338	0.27
257.711	0.42
258.084	0.21
258.458	0.19
258.831	0.4
259.204	0.18
259.577	0.2
259.95	0.3
260.323	0.23
260.697	0.16
261.07	0.19
261.443	0.24
261.816	0.27
262.189	0.28
262.562	0.24
262.935	0.24
263.308	0.21
263.68	0.22
264.053	0.24
264.426	0.17
264.799	0.23
265.172	0.2
265.545	0.21
265.917	0.19
266.29	0.25
266.663	0.18
267.035	0.21
267.408	0.24
267.781	0.19
268.153	0.18
268.526	0.17
268.898	0.16
269.271	0.16
269.643	0.17
270.016	0.21
270.388	0.18
270.76	0.15
271.133	0.17
271.505	0.16
271.877	0.13
272.25	0.17
272.622	0.13
272.994	0.17
273.366	0.14
273.739	0.18
274.111	0.15
274.483	0.15
274.855	0.15
275.227	0.15
275.599	0.15
275.971	0.15
276.343	0.17
276.715	0.14
277.087	0.15
277.459	0.16
277.831	0.17
278.203	0.15
278.574	0.16
278.946	0.15
279.318	0.15
279.69	0.17
280.061	0.17
280.433	0.17
280.805	0.18
281.176	0.17
281.548	0.17
281.92	0.18
282.291	0.17
282.663	0.18
283.034	0.18
283.406	0.18
283.777	0.18
284.148	0.18
284.52	0.19
284.891	0.18
285.262	0.18
285.634	0.2
286.005	0.2
286.376	0.19
286.747	0.21
287.119	0.21
287.49	0.22
287.861	0.22
288.232	0.22
288.603	0.22
288.974	0.23
289.345	0.22
289.716	0.24
290.087	0.24
290.458	0.23
290.829	0.22
291.2	0.24
291.571	0.24
291.941	0.23
292.312	0.24
292.683	0.24
293.054	0.24
293.424	0.24
293.795	0.26
294.166	0.25
294.536	0.25
294.907	0.26
295.277	0.26
295.648	0.27
296.018	0.27
296.389	0.27
296.759	0.27
297.13	0.27
297.5	0.27
297.871	0.27
298.241	0.28
298.611	0.28
298.981	0.29
299.352	0.3
299.722	0.29
300.092	0.28
300.462	0.3
300.832	0.3
301.202	0.3
301.573	0.31
301.943	0.31
302.313	0.31
302.683	0.31
303.053	0.31
303.422	0.33
303.792	0.32
304.162	0.33
304.532	0.34
304.902	0.35
305.272	0.34
305.641	0.35
306.011	0.35
306.381	0.35
306.75	0.35
307.12	0.36
307.49	0.36
307.859	0.38
308.229	0.38
308.598	0.39
308.968	0.39
309.337	0.38
309.707	0.37
310.076	0.38
310.445	0.39
310.815	0.38
311.184	0.4
311.553	0.41
311.923	0.41
312.292	0.41
312.661	0.42
313.03	0.41
313.399	0.42
313.768	0.43
314.137	0.44
314.506	0.44
314.875	0.44
315.244	0.44
315.613	0.45
315.982	0.46
316.351	0.47
316.72	0.46
317.089	0.47
317.458	0.47
317.826	0.49
318.195	0.49
318.564	0.49
318.933	0.48
319.301	0.49
319.67	0.49
320.038	0.5
320.407	0.5
320.775	0.51
321.144	0.52
321.512	0.53
321.881	0.53
322.249	0.54
322.618	0.55
322.986	0.54
323.354	0.53
323.723	0.54
324.091	0.56
324.459	0.57
324.827	0.55
325.195	0.56
325.564	0.56
325.932	0.57
326.3	0.57
326.668	0.58
327.036	0.58
327.404	0.6
327.772	0.6
328.14	0.6
328.508	0.61
328.875	0.62
329.243	0.64
329.611	0.65
329.979	0.65
330.346	0.64
330.714	0.63
331.082	0.62
331.449	0.63
331.817	0.63
332.185	0.64
332.552	0.66
332.92	0.65
333.287	0.68
333.655	0.67
334.022	0.67
334.389	0.69
334.757	0.7
335.124	0.7
335.491	0.69
335.859	0.71
336.226	0.7
336.593	0.71
336.96	0.71
337.327	0.7
337.695	0.71
338.062	0.72
338.429	0.75
338.796	0.72
339.163	0.73
339.53	0.75
339.897	0.74
340.263	0.74
340.63	0.75
340.997	0.74
341.364	0.76
341.731	0.74
342.097	0.75
342.464	0.76
342.831	0.76
343.197	0.76
343.564	0.75
343.931	0.75
344.297	0.77
344.664	0.75
345.03	0.76
345.396	0.75
345.763	0.77
346.129	0.77
346.496	0.76
346.862	0.77
347.228	0.8
347.594	0.75
347.961	0.77
348.327	0.8
348.693	0.77
349.059	0.8
349.425	0.8
349.791	0.79
350.157	0.79
350.523	0.8
350.889	0.8
351.255	0.79
351.621	0.78
351.987	0.76
352.353	0.78
352.719	0.79
353.084	0.76
353.45	0.79
353.816	0.79
354.181	0.79
354.547	0.77
354.913	0.76
355.278	0.76
355.644	0.78
356.009	0.77
356.375	0.75
356.74	0.77
357.106	0.78
357.471	0.78
357.836	0.74
358.202	0.75
358.567	0.75
358.932	0.75
359.297	0.74
359.663	0.74
360.028	0.73
360.393	0.74
360.758	0.73
361.123	0.71
361.488	0.73
361.853	0.71
362.218	0.72
362.583	0.7
362.948	0.71
363.312	0.72
363.677	0.69
364.042	0.7
364.407	0.66
364.772	0.67
365.136	0.68
365.501	0.67
365.865	0.68
366.23	0.67
366.595	0.67
366.959	0.66
367.324	0.66
367.688	0.65
368.052	0.63
368.417	0.63
368.781	0.65
369.145	0.63
369.51	0.62
369.874	0.62
370.238	0.62
370.602	0.62
370.967	0.59
371.331	0.6
371.695	0.59
372.059	0.59
372.423	0.58
372.787	0.57
373.151	0.58
373.515	0.58
373.878	0.53
374.242	0.55
374.606	0.55
374.97	0.53
375.334	0.53
375.697	0.52
376.061	0.53
376.425	0.52
376.788	0.51
377.152	0.51
377.515	0.51
377.879	0.5
378.242	0.49
378.606	0.48
378.969	0.48
379.333	0.47
379.696	0.46
380.059	0.45
380.422	0.46
380.786	0.44
381.149	0.43
381.512	0.42
381.875	0.42
382.238	0.41
382.601	0.4
382.964	0.39
383.327	0.39
383.69	0.39
384.053	0.39
384.416	0.37
384.779	0.36
385.142	0.36
385.504	0.34
385.867	0.35
386.23	0.34
386.593	0.35
386.955	0.34
387.318	0.33
387.68	0.33
388.043	0.31
388.405	0.32
388.768	0.31
389.13	0.29
389.493	0.3
389.855	0.29
390.217	0.29
390.58	0.29
390.942	0.28
391.304	0.28
391.666	0.28
392.028	0.27
392.391	0.27
392.753	0.26
393.115	0.26
393.477	0.25
393.839	0.26
394.201	0.25
394.563	0.25
394.924	0.24
395.286	0.24
395.648	0.25
396.01	0.23
396.371	0.23
396.733	0.23
397.095	0.22
397.456	0.23
397.818	0.22
398.18	0.21
398.541	0.21
398.903	0.22
399.264	0.21
399.625	0.21
399.987	0.21
400.348	0.23
400.709	0.21
401.071	0.21
401.432	0.21
401.793	0.21
402.154	0.2
402.515	0.2
402.876	0.2
403.238	0.2
403.599	0.2
403.96	0.19
404.32	0.19
404.681	0.21
405.042	0.2
405.403	0.19
405.764	0.19
406.125	0.2
406.485	0.2
406.846	0.2
407.207	0.18
407.567	0.2
407.928	0.18
408.288	0.18
408.649	0.18
409.009	0.18
409.37	0.18
409.73	0.18
410.091	0.18
410.451	0.17
410.811	0.18
411.171	0.17
411.532	0.17
411.892	0.17
412.252	0.17
412.612	0.16
412.972	0.17
413.332	0.17
413.692	0.17
414.052	0.19
414.412	0.17
414.772	0.18
415.132	0.17
415.492	0.18
415.851	0.16
416.211	0.17
416.571	0.16
416.931	0.18
417.29	0.2
417.65	0.18
418.009	0.18
418.369	0.17
418.728	0.17
419.088	0.18
419.447	0.16
419.807	0.17
420.166	0.16
420.525	0.17
420.884	0.17
421.244	0.16
421.603	0.17
421.962	0.16
422.321	0.16
422.68	0.17
423.039	0.18
423.398	0.15
423.757	0.16
424.116	0.16
424.475	0.16
424.834	0.16
425.193	0.17
425.551	0.16
425.91	0.16
426.269	0.16
426.628	0.17
426.986	0.16
427.345	0.17
427.703	0.16
428.062	0.17
428.42	0.17
428.779	0.16
429.137	0.16
429.496	0.15
429.854	0.17
430.212	0.18
430.57	0.16
430.929	0.15
431.287	0.15
431.645	0.15
432.003	0.15
432.361	0.15
432.719	0.15
433.077	0.16
433.435	0.15
433.793	0.16
434.151	0.14
434.509	0.15
434.866	0.15
435.224	0.15
435.582	0.16
435.94	0.15
436.297	0.15
436.655	0.14
437.012	0.15
437.37	0.14
437.727	0.15
438.085	0.14
438.442	0.13
438.8	0.15
439.157	0.14
439.514	0.15
439.872	0.14
440.229	0.14
440.586	0.14
440.943	0.13
441.3	0.12
441.657	0.13
442.014	0.13
442.371	0.14
442.728	0.14
443.085	0.14
443.442	0.13
443.799	0.12
444.156	0.13
444.513	0.12
444.869	0.13
445.226	0.12
445.583	0.14
445.939	0.12
446.296	0.13
446.652	0.13
447.009	0.12
447.365	0.12
447.722	0.11
448.078	0.12
448.434	0.12
448.791	0.12
449.147	0.11
449.503	0.11
449.859	0.11
450.215	0.1
450.571	0.1
450.928	0.11
451.284	0.11
451.64	0.11
451.995	0.1
452.351	0.1
452.707	0.09
453.063	0.11
453.419	0.1
453.775	0.1
454.13	0.1
454.486	0.1
454.842	0.09
455.197	0.09
455.553	0.08
455.908	0.09
456.264	0.09
456.619	0.09
456.975	0.09
457.33	0.09
457.685	0.09
458.04	0.08
458.396	0.08
458.751	0.08
459.106	0.08
459.461	0.08
459.816	0.07
460.171	0.08
460.526	0.08
460.881	0.07
461.236	0.07
461.591	0.07
461.946	0.07
462.301	0.06
462.655	0.06
463.01	0.07
463.365	0.06
463.719	0.05
464.074	0.05
464.428	0.05
464.783	0.05
465.137	0.04
465.492	0.05
465.846	0.04
466.201	0.04
466.555	0.05
466.909	0.05
467.263	0.05
467.618	0.04
467.972	0.05
468.326	0.03
468.68	0.04
469.034	0.03
469.388	0.03
469.742	0.03
470.096	0.04
470.45	0.03
470.804	0.03
471.157	0.03
471.511	0.02
471.865	0.02
472.218	0.03
472.572	0.03
472.926	0.02
473.279	0.01
473.633	0.02
473.986	0.03
474.34	0.02
474.693	0.02
475.046	0.02
475.4	0.02
475.753	0.01
476.106	0.01
476.459	0.02
476.812	0.02
477.165	0.01
477.519	0.02
477.872	0.02
478.224	0
478.577	0.03
478.93	0.02
479.283	0.02
479.636	0
479.989	0.01
480.341	-0
480.694	0.01
481.047	0.01
481.399	0.02
481.752	-0
482.104	0
482.457	0.01
482.809	0.01
483.162	0
483.514	-0.01
483.866	-0
484.219	-0
484.571	-0.01
484.923	0
485.275	0
485.627	-0.01
485.979	-0
486.331	0
486.683	0.01
487.035	0
487.387	0.01
487.739	0
488.091	0
488.443	-0
488.794	-0.01
489.146	-0.01
489.498	-0.01
489.849	-0.01
490.201	-0
490.552	0
490.904	-0.01
491.255	-0.01
491.607	0
491.958	0.01
492.309	0
492.661	-0
493.012	-0.01
493.363	0.01
493.714	-0.01
494.065	0
494.416	0.01
494.767	-0.01
495.118	-0
495.469	-0
495.82	0.01
496.171	-0
496.522	-0.01
496.872	0
497.223	-0.01
497.574	-0.03
497.924	-0.01
498.275	0.01
498.626	-0
498.976	-0.01
499.327	-0.01
499.677	-0
500.027	-0.01
500.378	-0.02
500.728	-0.03
501.078	-0.01
501.428	-0.02
501.779	-0.01
502.129	-0.02
502.479	-0.01
502.829	-0.01
503.179	-0.02
503.529	-0.02
503.879	-0.01
504.229	0
504.578	-0.02
504.928	-0.01
505.278	-0.01
505.628	-0.01
505.977	-0.02
506.327	-0.02
506.676	-0.02
507.026	-0.02
507.375	-0.02
507.725	-0.02
508.074	-0.02
508.424	-0.02
508.773	-0.03
509.122	-0.02
509.471	-0.02
509.82	-0.01
510.17	-0.02
510.519	-0.02
510.868	-0.03
511.217	-0.01
511.566	-0.01
511.915	-0
512.263	-0.01
512.612	-0.01
512.961	-0.01
513.31	-0.01
513.659	-0.01
514.007	-0.03
514.356	-0.02
514.704	-0.01
515.053	-0.01
515.401	-0.02
515.75	-0.03
516.098	-0.03
516.447	-0.04
516.795	-0.03
517.143	-0.04
517.491	-0.01
517.839	-0.03
518.188	-0.01
518.536	-0.04
518.884	-0.02
519.232	-0.03
519.58	-0.02
519.928	-0.01
520.275	-0.02
520.623	-0.02
520.971	-0.02
521.319	-0.02
521.666	-0.03
522.014	-0.04
522.362	-0.02
522.709	-0.03
523.057	-0.04
523.404	-0.03
523.752	-0.04
524.099	-0.03
524.446	-0.02
524.794	-0.04
525.141	-0.03
525.488	-0.02
525.835	-0.01
526.182	-0.02
526.529	-0.03
526.876	-0.03
527.223	-0.03
527.57	-0.03
527.917	-0.03
528.264	-0.04
528.611	-0.03
528.958	-0.02
529.304	-0.03
529.651	-0.04
529.998	-0.03
530.344	-0.04
530.691	-0.05
531.037	-0.04
531.384	-0.03
531.73	-0.03
532.076	-0.03
532.423	-0.03
532.769	-0.03
533.115	-0.02
533.461	-0.03
533.807	-0.03
534.154	-0.03
534.5	-0.01
534.846	-0.02
535.192	-0.03
535.537	-0.03
535.883	-0.04
536.229	-0.04
536.575	-0.03
536.921	-0.03
537.266	-0.03
537.612	-0.03
537.957	-0
538.303	-0.03
538.649	-0.03
538.994	-0.03
539.339	-0.03
539.685	-0.03
540.03	-0.04
540.375	-0.02
540.721	-0.03
541.066	-0.03
541.411	-0.02
541.756	-0.03
542.101	-0.02
542.446	-0.02
542.791	-0.03
543.136	-0.03
543.481	-0.04
543.825	-0.04
544.17	-0.05
544.515	-0.03
544.86	-0.04
545.204	-0.03
545.549	-0.02
545.893	-0.06
546.238	-0.03
546.582	-0.03
546.927	-0.04
547.271	-0.02
547.615	-0.04
547.96	-0.04
548.304	-0.03
548.648	-0.03
548.992	-0.03
549.336	-0.04
549.68	-0.03
550.024	-0.05
550.368	-0.03
550.712	-0.04
551.056	-0.03
551.4	-0.03
551.743	-0.02
552.087	-0.02
552.431	-0.03
552.774	-0.03
553.118	-0.04
553.462	-0.03
553.805	-0.03
554.148	-0.02
554.492	-0.03
554.835	-0.03
555.178	-0.03
555.522	-0.05
555.865	-0.03
556.208	-0.03
556.551	-0.03
556.894	-0.04
557.237	-0.02
557.58	-0.03
557.923	-0.04
558.266	-0.03
558.609	-0.03
558.952	-0.04
559.294	-0.03
559.637	-0.04
559.98	-0.04
560.322	-0.03
560.665	-0.04
561.007	-0.03
561.35	-0.05
561.692	-0.02
562.034	-0.04
562.377	-0.03
562.719	-0.04
563.061	-0.03
563.403	-0.03
563.745	-0.03
564.088	-0.02
564.43	-0.02
564.772	-0.03
565.113	-0.03
565.455	-0.03
565.797	-0.02
566.139	-0.04
566.481	-0.03
566.822	-0.03
567.164	-0.03
567.506	-0.03
567.847	-0.04
568.189	-0.02
568.53	-0.03
568.872	-0.03
569.213	-0.02
569.554	-0.04
569.895	-0.03
570.237	-0.03
570.578	-0.03
570.919	-0.04
571.26	-0.03
571.601	-0.02
571.942	-0.02
572.283	-0.03
572.624	-0.02
572.965	-0.02
573.306	-0.03
573.646	-0.02
573.987	-0.03
574.328	-0.04
574.668	-0.04
575.009	-0.04
575.349	-0.03
575.69	-0.03
576.03	-0.03
576.37	-0.03
576.711	-0.03
577.051	-0.03
577.391	-0.03
577.731	-0.04
578.072	-0.02
578.412	-0.02
578.752	-0.03
579.092	-0.03
579.431	-0.03
579.771	-0.02
580.111	-0.02
580.451	-0.03
580.791	-0.03
581.13	-0.02
581.47	-0.04
581.81	-0.04
582.149	-0.03
582.489	-0.04
582.828	-0.02
583.167	-0.03
583.507	-0.01
583.846	-0.03
584.185	-0.02
584.525	-0.02
584.864	-0.02
585.203	-0.03
585.542	-0.02
585.881	-0.02
586.22	-0.02
586.559	-0.03
586.898	-0.02
587.236	-0.02
587.575	-0.03
587.914	-0.03
588.252	-0.03
588.591	-0.03
588.93	-0.02
589.268	-0.04
589.607	-0.03
589.945	-0.03
590.283	-0.03
590.622	-0.03
590.96	-0.03
591.298	-0.03
591.636	-0.03
591.974	-0.03
592.313	-0.03
592.651	-0.03
592.989	-0.04
593.326	-0.05
593.664	-0.04
594.002	-0.05
594.34	-0.03
594.678	-0.04
595.015	-0.03
595.353	-0.04
595.691	-0.03
596.028	-0.03
596.366	-0.04
596.703	-0.03
597.04	-0.03
597.378	-0.02
597.715	-0.04
598.052	-0.04
598.389	-0.04
598.726	-0.03
599.064	-0.04
599.401	-0.04
599.738	-0.04
600.074	-0.04
600.411	-0.04
600.748	-0.04
601.085	-0.03
601.422	-0.03
601.758	-0.03
602.095	-0.02
602.432	-0.02
602.768	-0.02
603.105	-0.02
603.441	-0.03
603.777	-0.02
604.114	-0.02
604.45	-0.03
604.786	-0.02
605.122	-0.03
605.459	-0.03
605.795	-0.03
606.131	-0.02
606.467	-0.03
606.803	-0.03
607.139	-0.03
607.474	-0.03
607.81	-0.03
608.146	-0.03
608.482	-0.03
608.817	-0.04
609.153	-0.03
609.488	-0.05
609.824	-0.04
610.159	-0.04
610.495	-0.04
610.83	-0.04
611.165	-0.03
611.5	-0.03
611.836	-0.03
612.171	-0.04
612.506	-0.04
612.841	-0.04
613.176	-0.04
613.511	-0.03
613.845	-0.04
614.18	-0.03
614.515	-0.05
614.85	-0.03
615.184	-0.03
615.519	-0.03
615.854	-0.04
616.188	-0.04
616.523	-0.03
616.857	-0.03
617.191	-0.03
617.526	-0.03
617.86	-0.04
618.194	-0.03
618.528	-0.04
618.862	-0.05
619.196	-0.04
619.53	-0.03
619.864	-0.05
620.198	-0.03
620.532	-0.03
620.866	-0.04
621.2	-0.04
621.533	-0.04
621.867	-0.04
622.201	-0.02
622.534	-0.04
622.868	-0.03
623.201	-0.03
623.534	-0.03
623.868	-0.03
624.201	-0.04
624.534	-0.03
624.868	-0.04
625.201	-0.03
625.534	-0.03
625.867	-0.03
626.2	-0.04
626.533	-0.04
626.865	-0.04
627.198	-0.04
627.531	-0.05
627.864	-0.04
628.196	-0.05
628.529	-0.04
628.862	-0.04
629.194	-0.03
629.527	-0.05
629.859	-0.05
630.191	-0.04
630.524	-0.04
630.856	-0.04
631.188	-0.04
631.52	-0.04
631.852	-0.03
632.184	-0.05
632.516	-0.03
632.848	-0.04
633.18	-0.05
633.512	-0.06
633.844	-0.04
634.175	-0.05
634.507	-0.04
634.839	-0.05
635.17	-0.04
635.502	-0.04
635.833	-0.03
636.165	-0.04
636.496	-0.05
636.827	-0.04
637.159	-0.04
637.49	-0.03
637.821	-0.05
638.152	-0.03
638.483	-0.03
638.814	-0.03
639.145	-0.05
639.476	-0.06
639.807	-0.04
640.137	-0.05
640.468	-0.04
640.799	-0.04
641.129	-0.04
641.46	-0.04
641.791	-0.06
642.121	-0.06
642.451	-0.06
642.782	-0.06
643.112	-0.05
643.442	-0.05
643.773	-0.05
644.103	-0.05
644.433	-0.04
644.763	-0.03
645.093	-0.04
645.423	-0.04
645.753	-0.04
646.082	-0.05
646.412	-0.04
646.742	-0.05
647.072	-0.05
647.401	-0.03
647.731	-0.04
648.06	-0.03
648.39	-0.04
648.719	-0.04
649.048	-0.04
649.378	-0.04
649.707	-0.04
650.036	-0.04
650.365	-0.05
650.694	-0.04
651.023	-0.04
651.352	-0.04
651.681	-0.04
652.01	-0.03
652.339	-0.03
652.668	-0.04
652.996	-0.03
653.325	-0.04
653.654	-0.05
653.982	-0.04
654.311	-0.04
654.639	-0.04
654.967	-0.03
655.296	-0.04
655.624	-0.06
655.952	-0.07
656.28	-0.06
656.609	-0.05
656.937	-0.04
657.265	-0.02
657.593	-0.02
657.92	-0.01
658.248	-0.01
658.576	-0.03
658.904	-0.03
659.231	-0.03
659.559	-0.03
659.887	-0.03
660.214	-0.03
660.542	-0.03
660.869	-0.04
661.196	-0.04
661.524	-0.04
661.851	-0.04
662.178	-0.03
662.505	-0.04
662.832	-0.04
663.159	-0.05
663.486	-0.04
663.813	-0.04
664.14	-0.04
664.467	-0.04
664.794	-0.03
665.12	-0.04
665.447	-0.04
665.774	-0.04
666.1	-0.05
666.427	-0.05
666.753	-0.03
667.079	-0.05
667.406	-0.04
667.732	-0.04
668.058	-0.03
668.384	-0.04
668.71	-0.04
669.036	-0.04
669.362	-0.05
669.688	-0.04
670.014	-0.04
670.34	-0.04
670.666	-0.06
670.991	-0.04
671.317	-0.05
671.643	-0.06
671.968	-0.05
672.294	-0.05
672.619	-0.06
672.945	-0.06
673.27	-0.05
673.595	-0.05
673.92	-0.05
674.246	-0.06
674.571	-0.04
674.896	-0.05
675.221	-0.06
675.546	-0.05
675.87	-0.06
676.195	-0.05
676.52	-0.05
676.845	-0.05
677.169	-0.03
677.494	-0.04
677.819	-0.04
678.143	-0.03
678.468	-0.04
678.792	-0.04
679.116	-0.04
679.44	-0.04
679.765	-0.04
680.089	-0.04
680.413	-0.04
680.737	-0.04
681.061	-0.04
681.385	-0.04
681.709	-0.04
682.033	-0.04
682.356	-0.04
682.68	-0.04
683.004	-0.05
683.327	-0.05
683.651	-0.05
683.974	-0.05
684.298	-0.06
684.621	-0.04
684.944	-0.06
685.268	-0.06
685.591	-0.04
685.914	-0.05
686.237	-0.05
686.56	-0.05
686.883	-0.06
687.206	-0.05
687.529	-0.04
687.852	-0.05
688.175	-0.05
688.497	-0.05
688.82	-0.05
689.142	-0.06
689.465	-0.06
689.787	-0.05
690.11	-0.06
690.432	-0.07
690.755	-0.07
691.077	-0.06
691.399	-0.07
691.721	-0.07
692.043	-0.06
692.365	-0.05
692.687	-0.04
693.009	-0.06
693.331	-0.05
693.653	-0.05
693.974	-0.06
694.296	-0.06
694.618	-0.05
694.939	-0.07
695.261	-0.06
695.582	-0.05
695.904	-0.06
696.225	-0.06
696.546	-0.06
696.868	-0.05
697.189	-0.05
697.51	-0.05
697.831	-0.05
698.152	-0.04
698.473	-0.04
698.794	-0.04
699.114	-0.05
699.435	-0.05
699.756	-0.05
700.077	-0.05
700.397	-0.06
700.718	-0.05
701.038	-0.04
701.359	-0.05
701.679	-0.05
701.999	-0.05
702.32	-0.06
702.64	-0.05
702.96	-0.04
703.28	-0.06
703.6	-0.04
703.92	-0.06
704.24	-0.05
704.56	-0.06
704.879	-0.05
705.199	-0.06
705.519	-0.06
705.838	-0.07
706.158	-0.07
706.478	-0.06
706.797	-0.06
707.116	-0.06
707.436	-0.04
707.755	-0.06
708.074	-0.06
708.393	-0.05
708.712	-0.05
709.031	-0.06
709.35	-0.04
709.669	-0.04
709.988	-0.04
710.307	-0.04
710.626	-0.05
710.944	-0.04
711.263	-0.05
711.582	-0.06
711.9	-0.06
712.219	-0.05
712.537	-0.04
712.855	-0.06
713.174	-0.05
713.492	-0.05
713.81	-0.06
714.128	-0.06
714.446	-0.07
714.764	-0.06
715.082	-0.05
715.4	-0.05
715.718	-0.04
716.035	-0.03
716.353	-0.04
716.671	-0.04
716.988	-0.05
717.306	-0.04
717.623	-0.04
717.941	-0.05
718.258	-0.06
718.575	-0.05
718.893	-0.06
719.21	-0.05
719.527	-0.05
719.844	-0.06
720.161	-0.06
720.478	-0.06
720.795	-0.07
721.112	-0.07
721.428	-0.06
721.745	-0.06
722.062	-0.06
722.378	-0.07
722.695	-0.06
723.011	-0.07
723.328	-0.05
723.644	-0.06
723.96	-0.05
724.276	-0.06
724.593	-0.05
724.909	-0.04
725.225	-0.06
725.541	-0.07
725.857	-0.05
726.173	-0.06
726.488	-0.06
726.804	-0.06
727.12	-0.05
727.435	-0.05
727.751	-0.06
728.067	-0.06
728.382	-0.06
728.697	-0.05
729.013	-0.05
729.328	-0.06
729.643	-0.04
729.958	-0.05
730.273	-0.05
730.588	-0.05
730.903	-0.05
731.218	-0.05
731.533	-0.04
731.848	-0.03
732.163	-0.04
732.477	-0.04
732.792	-0.04
733.107	-0.03
733.421	-0.04
733.736	-0.05
734.05	-0.05
734.364	-0.03
734.678	-0.04
734.993	-0.03
735.307	-0.04
735.621	-0.04
735.935	-0.04
736.249	-0.03
736.563	-0.03
736.877	-0.03
737.19	-0.05
737.504	-0.04
737.818	-0.04
738.131	-0.04
738.445	-0.04
738.758	-0.03
739.072	-0.05
739.385	-0.03
739.698	-0.03
740.012	-0.04
740.325	-0.04
740.638	-0.03
740.951	-0.04
741.264	-0.05
741.577	-0.03
741.89	-0.05
742.203	-0.05
742.515	-0.05
742.828	-0.05
743.141	-0.04
743.453	-0.04
743.766	-0.04
744.078	-0.05
744.391	-0.03
744.703	-0.05
745.015	-0.04
745.327	-0.02
745.639	-0.03
745.952	-0.04
746.264	-0.04
746.575	-0.04
746.887	-0.04
747.199	-0.04
747.511	-0.04
747.823	-0.05
748.134	-0.05
748.446	-0.06
748.757	-0.06
749.069	-0.07
749.38	-0.05
749.692	-0.05
750.003	-0.05
750.314	-0.06
750.625	-0.05
750.936	-0.05
751.248	-0.03
751.559	-0.06
751.869	-0.06
752.18	-0.04
752.491	-0.06
752.802	-0.06
753.112	-0.05
753.423	-0.05
753.734	-0.03
754.044	-0.06
754.355	-0.04
754.665	-0.05
754.975	-0.05
755.285	-0.04
755.596	-0.03
755.906	-0.03
756.216	-0.03
756.526	-0.03
756.836	-0.02
757.146	-0.01
757.455	-0.01
757.765	-0.01
758.075	-0.01
758.385	-0
758.694	-0
759.004	-0.01
759.313	-0.01
759.622	-0.01
759.932	-0
760.241	0.01
760.55	-0
760.859	-0.01
761.168	-0.02
761.477	-0.02
761.786	-0.03
762.095	-0.04
762.404	-0.04
762.713	-0.03
763.021	-0.03
763.33	-0.03
763.639	-0.02
763.947	-0.03
764.256	-0.03
764.564	-0.03
764.872	-0.02
765.181	-0.02
765.489	-0.01
765.797	-0.01
766.105	-0.01
766.413	-0.02
766.721	-0.03
767.029	-0.03
767.337	-0.02
767.644	-0.03
767.952	-0.04
768.26	-0.03
768.567	-0.03
768.875	-0.01
769.182	-0.03
769.49	-0.04
769.797	-0.03
770.104	-0.04
770.411	-0.02
770.718	-0.02
771.026	-0.02
771.333	-0
771.639	-0.01
771.946	-0.03
772.253	-0.03
772.56	-0.03
772.867	-0.04
773.173	-0.03
773.48	-0.03
773.786	-0.05
774.093	-0.04
774.399	-0.05
774.705	-0.04
775.012	-0.05
775.318	-0.02
775.624	-0.03
775.93	-0.03
776.236	-0.03
776.542	-0.03
776.848	-0.03
777.154	-0.01
777.459	-0.05
777.765	-0.03
778.071	-0.02
778.376	-0.03
778.682	-0.03
778.987	-0.03
779.292	-0.04
779.598	-0.05
779.903	-0.03
780.208	-0.02
780.513	-0.01
780.818	-0.02
781.123	-0.02
781.428	-0.03
781.733	-0.03
782.038	-0.03
782.343	-0.02
782.647	-0.01
782.952	-0
783.256	-0.01
783.561	-0.01
783.865	-0.02
784.17	-0.01
784.474	-0.01
784.778	-0.01
785.082	0.01
785.386	-0.01
785.69	0
785.994	-0.01
786.298	-0.01
786.602	-0
786.906	0
787.209	0.01
787.513	-0
787.817	-0
788.12	0.01
788.424	0.01
788.727	0.01
789.03	0.02
789.333	0.03
789.637	-0
789.94	0.01
790.243	-0.01
790.546	0.01
790.849	0.02
791.152	0.03
791.454	0.03
791.757	0.02
792.06	0.01
792.362	-0
792.665	-0.01
792.967	-0
793.27	0.01
793.572	0.01
793.874	0.01
794.177	0.04
794.479	0.02
794.781	0.03
795.083	0.04
795.385	0.01
795.687	0.04
795.989	0
796.29	0.02
796.592	0
796.894	0.02
797.195	0.05
797.497	0.04
797.798	-0
798.1	0.02
798.401	0.02
798.702	0.01
799.003	0
799.304	0.03
799.605	0.01
799.906	0.06
800.207	0.04
800.508	0.02
800.809	0.03
801.11	0.02
801.41	0.03
801.711	0.04
802.011	0.03
802.312	0.04
802.612	0.04
802.913	0.04
803.213	0.04
803.513	0.08
803.813	0.05
804.113	0.03
804.413	0.05
804.713	0.02
805.013	0.05
805.313	0.07
805.613	0.02
805.912	0.04
806.212	0.06
806.511	0.05
806.811	0.05
807.11	0.02
807.41	0.06
807.709	0.05
808.008	0.03
808.307	0.03
808.606	0.1
808.905	0.03
809.204	0.09
809.503	0.06
809.802	0.1
810.101	0.03
810.399	-0
810.698	0.02
810.997	0.04
811.295	0.04
811.593	0.06
811.892	0.07
812.19	0.09
812.488	0.05
812.786	0.07
813.084	0.04
813.383	-0.01
813.68	0.07
813.978	0.1
814.276	0.11
814.574	0.06
814.872	0.12
815.169	0.05
815.467	0.09
815.764	0.11
816.062	-0.01
816.359	0.05
816.656	0.1
816.954	0.1
817.251	0.03
817.548	-0.01
817.845	0.06
818.142	0.06
818.439	0.01
818.735	0.02
819.032	0.08
819.329	0.04
819.626	0.02
819.922	0.06
820.219	0.05
820.515	0.08
820.811	0.06
821.108	0.03
821.404	0.09
821.7	0.03
821.996	0.08
822.292	0.06
822.588	-0.02
822.884	0.14
823.18	0.02
823.475	0.02
823.771	0.05
824.067	0.02
824.362	0.03
824.658	0.07
824.953	-0.02
825.249	0.08
825.544	0
825.839	0.08
826.134	0.04
826.429	0.03
826.724	0.02
827.019	-0.01
827.314	-0.03
827.609	0.07
827.904	-0.01
828.198	0.05
828.493	0.05
828.787	0.11
829.082	0.04
829.376	0.15
829.671	0.03
829.965	0.04
830.259	0.07
830.553	0.06
830.847	0.06
831.141	-0.01
831.435	0.02
831.729	0.06
832.023	0.01
832.317	0.06
832.61	0.09
832.904	-0.04
833.197	0.05
833.491	0.07
833.784	0.05
834.077	-0.04
834.371	0.06
834.664	-0.02
834.957	0.04
835.25	0.14
835.543	0.12
835.836	0.09
836.129	-0.05
836.421	-0.12
836.714	-0.12
837.007	0.07
837.299	0.04
837.592	-0.03
837.884	0.05
838.177	0.04
838.469	-0.01
838.761	-0
839.053	0.07
839.345	0.1
839.637	-0.01
839.929	0
840.221	0.04
840.513	-0.15
840.805	0.03
841.096	0.05
841.388	-0.02
841.68	-0.02
841.971	-0.08
842.262	-0.01
842.554	0.2
842.845	0.05
843.136	-0.09
843.427	-0.21
843.718	0.06
844.009	0.02
844.3	-0.26
844.591	-0.04
844.882	-0.19
845.173	0.24
845.463	0.55
845.754	0.12
846.044	-0.01
846.335	0.05
846.625	0.14
846.915	-0
847.206	0.01
847.496	-0.09
847.786	-0.09
848.076	-0.22
848.366	0.02
848.656	-0.02
848.945	0.04
849.235	0.02
849.525	-0.16
849.814	-0
850.104	0.15
850.393	-0.41
850.683	-0
850.972	-0.02
851.261	0.37
851.551	-0.42
851.84	-0.05
852.129	-0.35
852.418	-0.08
852.707	-0.03
852.995	0.15
853.284	0.28
853.573	-0.21
853.862	-0.02
854.15	0.26
854.439	-0.04
854.727	-0.78
855.015	0.36
855.304	0.09
855.592	-0.21
855.88	-0.36
856.168	-0.2
856.456	-0.06
856.744	0.06
857.032	0.03
857.32	-0.09
857.607	0.34
857.895	0.73
858.183	-0.46
858.47	-0.01
858.757	-0
859.045	-0
859.332	-0
859.619	-0.15
859.907	-0
860.194	-0.1
860.481	0.3
860.768	0.95
861.054	-0
861.341	-0.26
861.628	-0
861.915	-0.43
862.201	0.1
862.488	-0.33
862.774	0.24
863.061	0.32
863.347	0.1
863.633	0.7
863.919	-0.08
864.205	0.19
864.491	-0.31
864.777	-0
865.063	0.3
865.349	-0
865.635	-0.16
865.92	-0.45
866.206	-0.11
866.492	-0
866.777	-0
867.062	-0
867.348	-0
867.633	-0.4
867.918	0.48
868.203	-0
868.488	-0
868.773	-0
869.058	0.26
869.343	0.41
869.628	-0.39
869.912	-0
870.197	1.18
870.482	-0
870.766	-1
871.05	-0
871.335	0.3
871.619	1.06
871.903	0.06
872.187	-0.28
872.471	-0
872.755	-0.95
873.039	1.04
873.323	0.27
873.607	-0
873.89	-0.45
874.174	0.5
874.458	-0.12
874.741	0.14
875.024	-0
875.308	0.02
875.591	-0
875.874	1.46
876.157	-0.48
876.44	-0
876.723	0.21
877.006	0.27
877.289	-0.36
877.572	0.23
877.854	0.29
878.137	-0.14
878.42	0.39
878.702	-0.35
878.984	-0.2
879.267	0.56
879.549	-0
879.831	0.35
880.113	-0.6
880.395	0.54
880.677	-0
880.959	-0.28
